Data from Absorbance__4__13-25-33-400.txt Node

Date: Sat Aug 24 13:25:33 CDT 2024
User: jcb200005
Spectrometer: USB4H00496
Trigger mode: 4
Integration Time (sec): 5.700000E-2
Scans to average: 25
Electric dark correction enabled: true
Nonlinearity correction enabled: false
Boxcar width: 0
XAxis mode: Wavelengths
Number of Pixels in Spectrum: 3648
>>>>>Begin Spectral Data<<<<<
177.67838	0.92527
177.89545	0.92527
178.1125	0.92527
178.32955	0.68998
178.54659	-0.27303
178.76362	-0
178.98064	0.21737
179.19766	0.61393
179.41466	-0.5455
179.63165	0.40819
179.84864	-0
180.06561	0.60518
180.28258	0.08356
180.49954	-1.51774
180.71649	-0.19548
180.93343	-1.89275
181.15036	-0
181.36728	-0.65517
181.5842	0.24162
181.8011	0.7269
182.01799	0.45474
182.23488	0.77775
182.45176	0.48119
182.66862	0.73651
182.88548	1.05212
183.10233	-0
183.31917	-0
183.53601	0.78227
183.75283	1.17127
183.96964	0.63603
184.18645	0.99863
184.40324	-0
184.62003	-0
184.83681	1.41683
185.05357	0.68325
185.27033	0.67379
185.48708	-0
185.70382	0.77279
185.92056	1.14618
186.13728	0.67076
186.35399	0.81831
186.5707	0.59871
186.78739	0.83493
187.00408	0.5746
187.22076	0.85291
187.43742	-0
187.65408	-0
187.87073	0.48583
188.08737	0.95906
188.30401	-0
188.52063	0.67239
188.73724	0.96009
188.95385	0.54628
189.17044	0.75745
189.38703	-0
189.6036	1.42058
189.82017	-0
190.03673	0.70476
190.25328	1.12384
190.46982	1.40112
190.68635	0.62204
190.90287	-0
191.11939	-0
191.33589	0.67959
191.55239	0.95177
191.76887	-0
191.98535	1.2689
192.20182	0.81521
192.41827	-0
192.63472	0.96614
192.85116	1.6873
193.06759	1.28589
193.28401	1.09929
193.50043	0.8921
193.71683	1.81543
193.93322	-0
194.14961	2.3843
194.36598	1.272
194.58235	1.03338
194.79871	0.88476
195.01506	1.16481
195.23139	3.43602
195.44772	1.34522
195.66404	1.03898
195.88036	1.84895
196.09666	0.98546
196.31295	-0
196.52923	1.57172
196.74551	1.02391
196.96177	1.42618
197.17803	1.08608
197.39428	1.085
197.61051	1.13803
197.82674	1.3226
198.04296	1.24562
198.25917	0.99242
198.47537	0.92408
198.69156	2.13139
198.90775	1.391
199.12392	1.14683
199.34008	1.18954
199.55624	1.7819
199.77238	1.90093
199.98852	1.11352
200.20465	1.10587
200.42076	1.68633
200.63687	-0
200.85297	3.12602
201.06906	1.39859
201.28514	1.12848
201.50121	1.82689
201.71727	-0
201.93333	1.44702
202.14937	-0
202.3654	1.41437
202.58143	1.72271
202.79744	1.25572
203.01345	1.40299
203.22945	-0
203.44544	-0
203.66141	1.46966
203.87738	-0
204.09334	1.25058
204.30929	2.24201
204.52523	1.13901
204.74117	1.31992
204.95709	1.40768
205.173	2.73673
205.38891	2.09081
205.6048	1.5258
205.82069	1.64369
206.03656	1.54491
206.25243	2.03353
206.46829	1.83547
206.68413	1.41738
206.89997	3.57441
207.1158	1.40556
207.33162	1.62982
207.54743	-0
207.76324	1.67018
207.97903	-0
208.19481	1.34217
208.41058	2.22895
208.62635	1.47053
208.8421	1.48408
209.05785	-0
209.27358	-0
209.48931	1.27414
209.70503	1.56362
209.92074	2.25827
210.13643	-0
210.35212	-0
210.5678	1.79032
210.78347	1.49571
210.99914	1.8677
211.21479	1.79101
211.43043	-0
211.64606	-0
211.86169	1.84192
212.0773	2.45971
212.29291	2.1562
212.5085	1.7016
212.72409	1.91766
212.93966	1.71945
213.15523	2.03616
213.37079	1.9746
213.58634	-0
213.80188	2.11651
214.01741	1.55632
214.23293	1.52279
214.44844	1.81382
214.66394	1.55611
214.87943	1.826
215.09491	1.91563
215.31039	1.52864
215.52585	-0
215.7413	2.69712
215.95675	2.25584
216.17218	2.00468
216.38761	1.98309
216.60303	2.17281
216.81843	1.88364
217.03383	1.91469
217.24922	2.1153
217.4646	1.94426
217.67997	1.89583
217.89533	2.0752
218.11068	2.40933
218.32602	2.03806
218.54135	-0
218.75667	-0
218.97198	2.43274
219.18729	1.90571
219.40258	1.83412
219.61787	-0
219.83314	2.73409
220.04841	-0
220.26366	1.89704
220.47891	1.83539
220.69414	1.89734
220.90937	1.95906
221.12459	2.03608
221.3398	1.90901
221.555	2.18866
221.77019	2.01925
221.98536	2.02383
222.20054	1.95446
222.4157	-0
222.63085	2.18691
222.84599	1.80439
223.06112	3.63862
223.27624	-0
223.49136	2.14941
223.70646	2.25674
223.92155	2.29189
224.13664	-0
224.35171	2.29238
224.56678	2.23546
224.78184	3.3879
224.99688	3.79136
225.21192	2.21694
225.42695	2.17551
225.64196	2.04909
225.85697	2.79066
226.07197	2.94254
226.28696	2.28603
226.50194	2.06887
226.71691	2.36824
226.93187	3.96109
227.14682	2.04098
227.36176	-0
227.5767	2.65015
227.79162	2.49015
228.00653	3.12723
228.22143	2.17937
228.43633	2.13859
228.65121	2.83354
228.86609	-0
229.08095	2.83279
229.29581	2.71445
229.51065	2.27842
229.72549	2.31432
229.94031	2.28334
230.15513	2.36986
230.36994	2.27418
230.58474	2.43578
230.79952	2.5892
231.0143	2.41999
231.22907	2.50806
231.44383	-0
231.65858	2.60745
231.87332	3.13827
232.08805	2.37082
232.30277	-0
232.51748	2.53358
232.73218	3.12383
232.94688	3.05696
233.16156	-0
233.37623	3.03588
233.59089	4.28308
233.80555	3.04974
234.02019	3.40658
234.23483	2.26582
234.44945	3.09672
234.66406	2.31962
234.87867	2.36953
235.09327	2.62454
235.30785	2.59029
235.52243	2.47195
235.73699	2.4448
235.95155	2.44668
236.1661	2.42151
236.38064	2.32421
236.59516	2.50174
236.80968	2.31192
237.02419	2.83679
237.23869	2.7603
237.45318	3.0786
237.66766	2.40406
237.88213	2.95626
238.09659	-0
238.31104	3.734
238.52548	2.88976
238.73991	2.60823
238.95433	2.26601
239.16874	-0
239.38314	-0
239.59754	2.80217
239.81192	3.10194
240.02629	2.51745
240.24066	2.45589
240.45501	-0
240.66935	3.55006
240.88369	2.18608
241.09801	2.45383
241.31232	3.16538
241.52663	2.54366
241.74092	2.66453
241.95521	3.60995
242.16949	2.55489
242.38375	3.05084
242.59801	3.03269
242.81225	2.39263
243.02649	-0
243.24072	-0
243.45493	2.51273
243.66914	2.79078
243.88334	3.1815
244.09753	-0
244.31171	-0
244.52587	2.56872
244.74003	3.0335
244.95418	2.59014
245.16832	2.50175
245.38245	2.64739
245.59657	3.64226
245.81068	-0
246.02478	2.96159
246.23887	2.62505
246.45295	-0
246.66702	2.69367
246.88108	2.62206
247.09513	2.77653
247.30917	3.90423
247.5232	3.05341
247.73722	-0
247.95124	2.81791
248.16524	2.77586
248.37923	2.64382
248.59321	2.7413
248.80719	2.4283
249.02115	2.7508
249.2351	2.68651
249.44904	-0
249.66298	3.30957
249.8769	2.32477
250.09081	3.02106
250.30472	-0
250.51861	2.39036
250.7325	-0
250.94637	2.62296
251.16024	3.5373
251.37409	2.66813
251.58793	2.60821
251.80177	3.06951
252.01559	3.02811
252.22941	2.74227
252.44322	2.57444
252.65701	-0
252.8708	-0
253.08457	3.17875
253.29834	-0
253.51209	2.94597
253.72584	2.67281
253.93958	2.51468
254.1533	3.06041
254.36702	3.24867
254.58073	2.78911
254.79442	4.44809
255.00811	3.05334
255.22179	3.06584
255.43545	3.08625
255.64911	2.6705
255.86276	2.74758
256.0764	3.15792
256.29002	-0
256.50364	2.66092
256.71725	2.86195
256.93085	2.56831
257.14443	3.01374
257.35801	3.33914
257.57158	2.67665
257.78514	2.44506
257.99869	3.2564
258.21223	2.92036
258.42575	3.54204
258.63927	2.775
258.85278	2.55488
259.06628	2.81549
259.27977	3.28127
259.49325	-0
259.70672	2.71437
259.92017	3.17289
260.13362	-0
260.34706	2.58757
260.56049	2.72854
260.77391	2.57932
260.98732	3.22002
261.20072	2.6778
261.41411	3.58551
261.62749	3.03836
261.84086	3.83211
262.05422	3.91813
262.26757	-0
262.4809	2.85491
262.69423	2.88428
262.90755	-0
263.12086	2.91602
263.33416	2.9879
263.54745	3.60639
263.76073	3.59443
263.974	2.77084
264.18726	3.16962
264.40051	3.15053
264.61375	2.70112
264.82698	3.11234
265.0402	-0
265.25341	2.7872
265.46661	2.69635
265.6798	2.80633
265.89298	2.65221
266.10615	-0
266.31931	3.4422
266.53245	-0
266.74559	3.08474
266.95872	-0
267.17184	2.76215
267.38495	2.96612
267.59805	3.11624
267.81114	2.78242
268.02422	-0
268.23729	3.03909
268.45035	3.37593
268.6634	-0
268.87644	3.03752
269.08947	2.73538
269.30248	2.87595
269.51549	-0
269.72849	3.00392
269.94148	3.66397
270.15446	2.81743
270.36743	3.24949
270.58039	2.71175
270.79334	2.97361
271.00627	2.84089
271.2192	2.79488
271.43212	-0
271.64503	2.74166
271.85793	3.52126
272.07081	2.84358
272.28369	-0
272.49656	-0
272.70942	4.10832
272.92227	2.87292
273.1351	2.87601
273.34793	2.79431
273.56075	3.37886
273.77356	3.04519
273.98635	2.4438
274.19914	3.51326
274.41192	2.97423
274.62468	2.98986
274.83744	3.0714
275.05019	2.82398
275.26292	2.90047
275.47565	4.12461
275.68837	2.73613
275.90107	3.20293
276.11377	3.12751
276.32645	3.05813
276.53913	3.92183
276.7518	-0
276.96445	-0
277.1771	3.89482
277.38973	3.0377
277.60236	2.8945
277.81497	3.00017
278.02758	3.31377
278.24017	3.4342
278.45276	3.18091
278.66533	2.7006
278.87789	2.94687
279.09045	3.21272
279.30299	2.93317
279.51552	3.55645
279.72805	-0
279.94056	-0
280.15306	-0
280.36556	2.83269
280.57804	2.71742
280.79051	3.04789
281.00297	3.63612
281.21543	2.73862
281.42787	3.48041
281.6403	3.61096
281.85272	3.14356
282.06513	2.94306
282.27753	3.49419
282.48992	2.66188
282.70231	3.15253
282.91468	2.84514
283.12704	-0
283.33939	-0
283.55173	-0
283.76406	2.73659
283.97638	-0
284.18868	2.81874
284.40098	2.83958
284.61327	2.41822
284.82555	2.5544
285.03782	3.70901
285.25008	2.78187
285.46232	3.48821
285.67456	-0
285.88679	2.71846
286.09901	-0
286.31121	2.96706
286.52341	2.75478
286.7356	2.6559
286.94777	3.15993
287.15994	3.63448
287.37209	2.66017
287.58424	3.45128
287.79637	2.8228
288.0085	-0
288.22061	3.02124
288.43272	-0
288.64481	3.11456
288.85689	4.15325
289.06897	2.86849
289.28103	-0
289.49308	3.40098
289.70512	2.61868
289.91716	3.24611
290.12918	2.95564
290.34119	2.71786
290.55319	3.73093
290.76518	4.03864
290.97716	2.9203
291.18913	2.75641
291.40109	3.10948
291.61304	2.86811
291.82498	3.58011
292.03691	3.04474
292.24883	2.64277
292.46074	2.5168
292.67264	3.07965
292.88452	3.0242
293.0964	2.92781
293.30827	-0
293.52013	3.3181
293.73197	2.73105
293.94381	3.18361
294.15563	2.86932
294.36745	2.79538
294.57925	2.71763
294.79105	2.70147
295.00283	3.0803
295.21461	2.89294
295.42637	3.12711
295.63812	3.019
295.84987	3.89611
296.0616	3.28089
296.27332	-0
296.48503	4.71691
296.69673	-0
296.90843	2.77749
297.12011	2.73714
297.33178	2.82397
297.54344	2.9352
297.75509	2.53814
297.96672	2.6692
298.17835	3.38309
298.38997	3.00504
298.60158	-0
298.81318	-0
299.02476	3.15661
299.23634	3.39716
299.44791	3.00204
299.65946	2.79575
299.87101	2.46469
300.08254	3.02879
300.29407	-0
300.50558	3.28488
300.71709	-0
300.92858	2.78294
301.14006	-0
301.35154	-0
301.563	2.82448
301.77445	2.77963
301.98589	-0
302.19732	2.84174
302.40874	3.36359
302.62015	2.71276
302.83155	3.25158
303.04294	-0
303.25432	3.43912
303.46569	3.24698
303.67704	-0
303.88839	2.85072
304.09973	3.00203
304.31106	2.77643
304.52237	3.25939
304.73368	3.1689
304.94497	2.85686
305.15626	-0
305.36753	-0
305.57879	3.19181
305.79005	3.03703
306.00129	3.00251
306.21252	5.33232
306.42374	3.30207
306.63495	2.70925
306.84615	2.62479
307.05734	2.85256
307.26852	3.56122
307.47969	-0
307.69085	3.50252
307.902	2.73702
308.11314	2.86101
308.32426	-0
308.53538	2.94758
308.74649	2.54447
308.95758	-0
309.16867	-0
309.37974	2.99884
309.59081	2.75783
309.80186	2.75391
310.0129	2.68921
310.22393	2.78209
310.43496	-0
310.64597	2.65082
310.85697	3.08805
311.06796	2.93869
311.27894	3.16962
311.48991	3.20077
311.70086	3.03869
311.91181	2.67661
312.12275	2.97209
312.33368	2.84299
312.54459	2.8157
312.7555	2.88231
312.96639	3.3702
313.17728	3.53921
313.38815	2.87725
313.59902	-0
313.80987	3.35855
314.02071	3.14904
314.23154	3.12289
314.44236	2.57825
314.65318	3.3995
314.86398	3.42973
315.07476	2.60191
315.28554	3.11079
315.49631	2.71513
315.70707	2.97493
315.91782	3.13672
316.12855	-0
316.33928	2.82586
316.54999	3.57076
316.7607	2.53227
316.97139	2.77617
317.18208	2.76941
317.39275	2.64124
317.60341	2.78384
317.81406	3.2843
318.0247	3.36967
318.23533	2.72815
318.44595	-0
318.65656	2.86232
318.86716	2.72347
319.07775	2.98046
319.28833	2.66691
319.49889	-0
319.70945	-0
319.91999	2.807
320.13053	2.49634
320.34105	3.33317
320.55156	2.96944
320.76207	3.4651
320.97256	2.74317
321.18304	3.99145
321.39351	2.57419
321.60397	2.45766
321.81442	2.96322
322.02486	3.1564
322.23529	2.74243
322.4457	3.21813
322.65611	3.50039
322.86651	2.49793
323.07689	2.76754
323.28726	2.91458
323.49763	2.95973
323.70798	-0
323.91832	4.44212
324.12866	2.74626
324.33898	3.08392
324.54929	-0
324.75959	3.00795
324.96988	2.77883
325.18015	4.36572
325.39042	2.56319
325.60068	3.1225
325.81092	2.90609
326.02116	2.66044
326.23138	2.87621
326.4416	3.5592
326.6518	2.88576
326.86199	-0
327.07217	2.72307
327.28235	-0
327.49251	4.07509
327.70265	3.06891
327.91279	-0
328.12292	3.01664
328.33304	2.74494
328.54315	3.92238
328.75324	2.49343
328.96333	-0
329.1734	2.6619
329.38346	-0
329.59352	2.91611
329.80356	2.85287
330.01359	2.89711
330.22361	-0
330.43362	3.56024
330.64362	3.01179
330.85361	-0
331.06358	4.16418
331.27355	-0
331.48351	-0
331.69345	3.61797
331.90338	3.54247
332.11331	2.84011
332.32322	2.56874
332.53312	4.87084
332.74301	2.64386
332.95289	2.77233
333.16276	2.70154
333.37262	3.32789
333.58247	2.91011
333.79231	-0
334.00213	4.02399
334.21195	2.95281
334.42175	2.51408
334.63155	2.54166
334.84133	2.97649
335.0511	3.0226
335.26086	2.88266
335.47061	2.86924
335.68035	2.75199
335.89008	3.07653
336.0998	3.6502
336.3095	2.85364
336.5192	2.4684
336.72889	3.17875
336.93856	-0
337.14822	2.70769
337.35788	2.64156
337.56752	2.4689
337.77715	2.84207
337.98677	2.86759
338.19638	3.05977
338.40598	2.53328
338.61556	2.88113
338.82514	2.90552
339.03471	3.03313
339.24426	-0
339.45381	2.73625
339.66334	2.77696
339.87286	2.69071
340.08237	2.5464
340.29187	3.45988
340.50136	2.9876
340.71084	2.76095
340.92031	2.562
341.12977	2.53065
341.33921	-0
341.54865	2.72124
341.75807	3.36255
341.96749	2.73232
342.17689	3.22331
342.38628	2.88092
342.59566	2.49233
342.80503	3.04679
343.01439	3.4442
343.22374	3.25474
343.43307	2.61573
343.6424	3.17502
343.85171	2.86995
344.06102	2.84718
344.27031	2.308
344.47959	2.6378
344.68886	3.11105
344.89813	2.83455
345.10737	2.84108
345.31661	2.74623
345.52584	-0
345.73506	2.57669
345.94426	2.59465
346.15346	3.15493
346.36264	3.20371
346.57181	2.52026
346.78098	3.15059
346.99013	2.62685
347.19927	3.26116
347.40839	2.72913
347.61751	4.11032
347.82662	2.76324
348.03571	2.63192
348.2448	2.69761
348.45387	2.72543
348.66294	2.61447
348.87199	3.04282
349.08103	2.64314
349.29006	3.06034
349.49908	2.51013
349.70809	-0
349.91708	2.53797
350.12607	-0
350.33504	3.64099
350.54401	2.64111
350.75296	3.22903
350.9619	2.64017
351.17083	2.46577
351.37975	2.99107
351.58866	3.54478
351.79756	2.90501
352.00645	2.72768
352.21532	2.61063
352.42419	-0
352.63304	3.73078
352.84188	-0
353.05071	2.91683
353.25954	2.93633
353.46834	2.44553
353.67714	3.04238
353.88593	3.05936
354.09471	2.8384
354.30347	2.88511
354.51223	2.77778
354.72097	2.86809
354.9297	2.55178
355.13842	2.85234
355.34713	2.8544
355.55583	2.87222
355.76452	2.56563
355.9732	2.7887
356.18186	2.99988
356.39052	-0
356.59916	2.73811
356.80779	-0
357.01641	-0
357.22502	2.53122
357.43362	-0
357.64221	2.69355
357.85079	2.67853
358.05935	4.34039
358.26791	2.48802
358.47645	2.63623
358.68498	2.6297
358.89351	3.28204
359.10202	3.07587
359.31052	3.06941
359.519	3.07188
359.72748	2.90855
359.93595	2.46629
360.1444	-0
360.35284	2.58336
360.56128	2.80516
360.7697	3.03598
360.97811	-0
361.18651	3.02622
361.3949	2.5015
361.60327	3.03004
361.81164	2.8033
362.01999	3.34237
362.22834	-0
362.43667	-0
362.64499	2.70971
362.8533	2.42898
363.0616	2.85447
363.26988	2.51748
363.47816	3.27545
363.68643	2.81667
363.89468	3.45889
364.10292	2.52555
364.31115	3.43275
364.51937	2.66644
364.72758	3.49503
364.93578	2.78391
365.14397	4.18448
365.35214	2.89018
365.56031	2.55872
365.76846	-0
365.9766	3.18282
366.18474	2.95267
366.39286	3.32184
366.60096	-0
366.80906	2.44652
367.01715	2.75231
367.22522	2.83653
367.43329	3.01302
367.64134	3.28887
367.84938	2.41215
368.05741	2.72736
368.26543	2.58182
368.47344	2.81983
368.68143	3.08441
368.88942	2.73824
369.09739	3.00187
369.30535	4.25444
369.51331	3.3936
369.72125	2.68787
369.92918	3.62829
370.13709	3.31539
370.345	2.58448
370.55289	3.13791
370.76078	2.74647
370.96865	3.54007
371.17651	2.67234
371.38436	2.67145
371.5922	2.78225
371.80003	2.86557
372.00785	4.17509
372.21565	3.42625
372.42344	-0
372.63123	3.21765
372.839	3.93378
373.04676	2.6998
373.25451	2.97636
373.46224	2.88244
373.66997	-0
373.87769	2.88377
374.08539	2.64006
374.29308	2.60638
374.50076	3.63759
374.70843	-0
374.91609	2.85641
375.12374	2.90333
375.33137	2.48751
375.539	-0
375.74661	3.13445
375.95421	4.2419
376.1618	-0
376.36938	3.08629
376.57695	2.68601
376.78451	2.48799
376.99205	3.0807
377.19959	2.77763
377.40711	2.68711
377.61462	2.60933
377.82212	2.78998
378.02961	-0
378.23709	4.1721
378.44455	3.02896
378.65201	2.62199
378.85945	2.60666
379.06688	2.46738
379.2743	2.56928
379.48171	2.8869
379.68911	2.74868
379.89649	2.86919
380.10387	2.77161
380.31123	-0
380.51859	3.03254
380.72593	2.90193
380.93326	2.61478
381.14057	2.63786
381.34788	-0
381.55518	2.47032
381.76246	-0
381.96973	-0
382.17699	3.06184
382.38424	2.91246
382.59148	2.83046
382.79871	3.01121
383.00592	-0
383.21313	3.24323
383.42032	2.48815
383.6275	2.70327
383.83467	2.45403
384.04183	2.68143
384.24898	2.72588
384.45611	2.69484
384.66324	2.57099
384.87035	2.60836
385.07745	2.96696
385.28454	3.0546
385.49162	-0
385.69869	2.62947
385.90575	2.7791
386.11279	2.505
386.31982	2.56165
386.52684	2.69814
386.73385	3.43533
386.94085	2.69943
387.14784	3.10377
387.35482	2.52559
387.56178	3.23757
387.76873	-0
387.97567	2.71202
388.1826	2.69572
388.38952	2.91664
388.59643	-0
388.80332	2.86496
389.01021	-0
389.21708	2.62648
389.42394	2.69861
389.63079	3.00832
389.83763	2.94504
390.04446	2.46364
390.25127	2.72929
390.45807	-0
390.66487	2.47968
390.87165	2.93758
391.07842	3.59429
391.28517	2.86892
391.49192	2.87406
391.69865	2.45192
391.90538	2.84457
392.11209	2.7511
392.31879	2.76105
392.52548	2.61405
392.73215	2.92977
392.93882	2.96758
393.14547	2.64931
393.35212	-0
393.55875	3.19849
393.76537	2.67841
393.97197	2.78059
394.17857	2.7813
394.38516	2.7822
394.59173	2.9574
394.79829	2.54572
395.00484	2.60916
395.21138	2.41482
395.41791	2.57308
395.62442	2.57696
395.83093	-0
396.03742	2.73865
396.2439	3.08016
396.45037	-0
396.65683	3.0485
396.86327	2.38726
397.06971	3.6668
397.27613	2.79252
397.48254	3.14282
397.68894	2.46592
397.89533	2.79883
398.10171	-0
398.30807	-0
398.51442	2.76473
398.72077	2.45678
398.9271	2.77459
399.13342	2.92719
399.33972	2.57782
399.54602	3.35728
399.7523	3.57374
399.95857	2.62428
400.16484	-0
400.37108	3.67345
400.57732	2.52131
400.78355	3.51011
400.98976	3.71999
401.19597	-0
401.40216	2.36481
401.60834	3.18737
401.8145	3.69255
402.02066	2.94989
402.2268	2.51679
402.43294	2.55805
402.63906	2.56416
402.84517	2.49902
403.05127	-0
403.25735	2.59044
403.46343	3.03746
403.66949	2.43289
403.87554	2.46428
404.08158	-0
404.28761	2.82072
404.49363	2.82761
404.69963	3.00215
404.90562	3.45304
405.1116	2.95331
405.31757	-0
405.52353	2.48263
405.72948	-0
405.93541	2.32178
406.14134	-0
406.34725	2.48698
406.55315	2.93502
406.75904	3.34807
406.96491	2.68161
407.17078	-0
407.37663	2.88171
407.58247	2.62553
407.7883	2.62366
