Data from Absorbance__1__13-04-29-549.txt Node

Date: Sat Aug 24 13:04:29 CDT 2024
User: jcb200005
Spectrometer: USB4H00496
Trigger mode: 4
Integration Time (sec): 5.700000E-2
Scans to average: 25
Electric dark correction enabled: true
Nonlinearity correction enabled: false
Boxcar width: 0
XAxis mode: Wavelengths
Number of Pixels in Spectrum: 3648
>>>>>Begin Spectral Data<<<<<
177.67838	0.67749
177.89545	0.67749
178.1125	0.67749
178.32955	0.21524
178.54659	-0.04613
178.76362	-0
178.98064	-0
179.19766	0.18608
179.41466	-0.22595
179.63165	-0.03009
179.84864	-0
180.06561	-0.20927
180.28258	-0.22519
180.49954	-0
180.71649	-0
180.93343	-0
181.15036	-0.24414
181.36728	-0
181.5842	-0
181.8011	0.46875
182.01799	0.85001
182.23488	0.89142
182.45176	0.47354
182.66862	0.88531
182.88548	0.36463
183.10233	1.27521
183.31917	-0
183.53601	0.61331
183.75283	-0
183.96964	0.54853
184.18645	-0
184.40324	0.91667
184.62003	0.59067
184.83681	1.1158
185.05357	1.08611
185.27033	0.76634
185.48708	-0
185.70382	0.87963
185.92056	-0
186.13728	0.55823
186.35399	0.80773
186.5707	0.592
186.78739	0.88528
187.00408	0.6871
187.22076	0.99962
187.43742	-0
187.65408	1.61161
187.87073	0.37845
188.08737	0.91275
188.30401	-0
188.52063	0.92109
188.73724	0.85046
188.95385	0.91307
189.17044	0.52095
189.38703	1.19972
189.6036	-0
189.82017	-0
190.03673	0.66654
190.25328	1.16991
190.46982	1.06509
190.68635	0.91947
190.90287	0.76603
191.11939	1.0907
191.33589	0.71613
191.55239	0.81386
191.76887	-0
191.98535	-0
192.20182	1.07395
192.41827	-0
192.63472	0.99813
192.85116	0.88245
193.06759	1.37324
193.28401	1.22181
193.50043	0.96821
193.71683	1.36441
193.93322	-0
194.14961	1.63209
194.36598	1.19509
194.58235	0.87662
194.79871	1.49467
195.01506	1.42348
195.23139	1.50917
195.44772	1.07927
195.66404	1.00348
195.88036	0.90343
196.09666	0.97009
196.31295	1.40107
196.52923	1.30508
196.74551	0.89665
196.96177	1.2462
197.17803	2.29492
197.39428	1.27763
197.61051	0.9882
197.82674	1.43632
198.04296	1.06356
198.25917	0.98465
198.47537	1.15175
198.69156	2.96389
198.90775	2.61087
199.12392	1.23705
199.34008	1.57814
199.55624	1.2696
199.77238	-0
199.98852	1.06736
200.20465	-0
200.42076	2.43828
200.63687	2.37544
200.85297	1.70483
201.06906	1.36181
201.28514	1.38931
201.50121	-0
201.71727	1.63814
201.93333	2.37277
202.14937	-0
202.3654	2.29927
202.58143	0.90455
202.79744	1.92617
203.01345	1.2132
203.22945	-0
203.44544	1.58815
203.66141	1.21184
203.87738	-0
204.09334	1.655
204.30929	1.89915
204.52523	1.08802
204.74117	1.56223
204.95709	1.68629
205.173	1.49584
205.38891	-0
205.6048	1.67193
205.82069	1.41007
206.03656	1.93064
206.25243	-0
206.46829	1.69068
206.68413	1.68014
206.89997	2.03034
207.1158	1.263
207.33162	1.89058
207.54743	2.23953
207.76324	1.80656
207.97903	-0
208.19481	1.5773
208.41058	2.03081
208.62635	-0
208.8421	1.98856
209.05785	1.90943
209.27358	1.42171
209.48931	1.52048
209.70503	1.79349
209.92074	-0
210.13643	2.63332
210.35212	1.97703
210.5678	1.59893
210.78347	1.42248
210.99914	2.08765
211.21479	1.86761
211.43043	1.67971
211.64606	2.90558
211.86169	1.76487
212.0773	1.74839
212.29291	3.14011
212.5085	1.8569
212.72409	1.95871
212.93966	2.98037
213.15523	1.64211
213.37079	2.19447
213.58634	-0
213.80188	1.91459
214.01741	2.13868
214.23293	1.39805
214.44844	2.19373
214.66394	1.56026
214.87943	1.74469
215.09491	2.16157
215.31039	1.55114
215.52585	-0
215.7413	-0
215.95675	-0
216.17218	1.62129
216.38761	2.62826
216.60303	2.29871
216.81843	1.77965
217.03383	2.41984
217.24922	1.74715
217.4646	1.87448
217.67997	1.65108
217.89533	1.91347
218.11068	2.08541
218.32602	1.67076
218.54135	2.05674
218.75667	2.90308
218.97198	-0
219.18729	2.35972
219.40258	2.05403
219.61787	2.33769
219.83314	2.80664
220.04841	2.20622
220.26366	2.49792
220.47891	2.0358
220.69414	-0
220.90937	1.8893
221.12459	1.93431
221.3398	1.95381
221.555	1.98789
221.77019	1.99958
221.98536	2.0582
222.20054	3.04535
222.4157	2.29012
222.63085	2.03719
222.84599	2.07887
223.06112	2.25102
223.27624	2.36753
223.49136	2.65739
223.70646	2.32957
223.92155	2.3592
224.13664	2.53823
224.35171	1.91688
224.56678	1.95225
224.78184	3.05116
224.99688	2.28621
225.21192	1.91102
225.42695	2.05419
225.64196	2.12837
225.85697	2.91181
226.07197	2.61209
226.28696	2.16287
226.50194	2.32832
226.71691	-0
226.93187	2.71693
227.14682	2.29493
227.36176	3.04292
227.5767	2.76539
227.79162	3.07143
228.00653	3.42826
228.22143	2.56369
228.43633	2.09165
228.65121	2.11591
228.86609	3.0844
229.08095	2.85865
229.29581	2.35952
229.51065	2.83404
229.72549	2.21521
229.94031	-0
230.15513	2.58382
230.36994	2.19287
230.58474	2.26369
230.79952	2.19956
231.0143	2.80459
231.22907	3.78159
231.44383	-0
231.65858	-0
231.87332	2.98123
232.08805	2.50065
232.30277	2.63022
232.51748	2.66753
232.73218	2.42963
232.94688	2.61672
233.16156	2.85264
233.37623	2.75388
233.59089	2.99027
233.80555	2.50977
234.02019	3.01999
234.23483	2.31911
234.44945	2.95351
234.66406	2.21666
234.87867	2.64724
235.09327	2.23782
235.30785	2.74317
235.52243	2.88973
235.73699	2.40202
235.95155	2.93161
236.1661	2.57316
236.38064	2.4469
236.59516	2.23836
236.80968	2.27367
237.02419	2.35258
237.23869	2.68338
237.45318	2.63001
237.66766	2.25742
237.88213	3.42503
238.09659	2.46268
238.31104	2.39384
238.52548	2.22648
238.73991	2.32823
238.95433	2.42185
239.16874	-0
239.38314	-0
239.59754	2.94499
239.81192	3.20718
240.02629	2.54866
240.24066	3.62061
240.45501	-0
240.66935	-0
240.88369	2.32542
241.09801	2.36043
241.31232	3.37069
241.52663	2.36639
241.74092	-0
241.95521	2.64138
242.16949	2.66911
242.38375	3.10227
242.59801	-0
242.81225	2.92258
243.02649	-0
243.24072	2.85258
243.45493	2.45658
243.66914	2.69457
243.88334	2.91619
244.09753	2.87871
244.31171	2.65186
244.52587	3.24407
244.74003	3.34665
244.95418	2.55994
245.16832	2.75852
245.38245	2.517
245.59657	2.80839
245.81068	3.09294
246.02478	-0
246.23887	2.44558
246.45295	-0
246.66702	3.50785
246.88108	2.52859
247.09513	2.94259
247.30917	2.6198
247.5232	2.84694
247.73722	2.61906
247.95124	2.64108
248.16524	2.59814
248.37923	2.5587
248.59321	2.95013
248.80719	2.73456
249.02115	2.96302
249.2351	3.65399
249.44904	3.38669
249.66298	-0
249.8769	2.55106
250.09081	-0
250.30472	2.89904
250.51861	2.46985
250.7325	-0
250.94637	2.54682
251.16024	2.89887
251.37409	2.47107
251.58793	3.23341
251.80177	3.28499
252.01559	2.97608
252.22941	2.33461
252.44322	3.27836
252.65701	-0
252.8708	-0
253.08457	2.72282
253.29834	-0
253.51209	2.62624
253.72584	2.67147
253.93958	2.64365
254.1533	-0
254.36702	-0
254.58073	-0
254.79442	3.05173
255.00811	3.04559
255.22179	2.78486
255.43545	3.11881
255.64911	2.81779
255.86276	3.02641
256.0764	2.70852
256.29002	-0
256.50364	2.92986
256.71725	2.65547
256.93085	2.50563
257.14443	3.11273
257.35801	3.82213
257.57158	2.63594
257.78514	2.98747
257.99869	-0
258.21223	2.78618
258.42575	3.30758
258.63927	2.61524
258.85278	2.91014
259.06628	4.52476
259.27977	2.74791
259.49325	3.04513
259.70672	3.55013
259.92017	2.91086
260.13362	3.36874
260.34706	2.8567
260.56049	-0
260.77391	2.4978
260.98732	2.8944
261.20072	2.80314
261.41411	2.78982
261.62749	3.6017
261.84086	-0
262.05422	2.77657
262.26757	-0
262.4809	3.84776
262.69423	3.73324
262.90755	2.83377
263.12086	2.49636
263.33416	2.92495
263.54745	2.7347
263.76073	3.17275
263.974	2.70791
264.18726	2.77021
264.40051	3.35746
264.61375	2.78459
264.82698	2.73592
265.0402	-0
265.25341	2.75969
265.46661	3.11579
265.6798	2.88145
265.89298	2.47196
266.10615	4.27132
266.31931	2.90993
266.53245	3.40109
266.74559	-0
266.95872	3.26925
267.17184	2.69841
267.38495	2.69813
267.59805	3.22516
267.81114	2.66785
268.02422	2.99685
268.23729	2.71681
268.45035	3.37879
268.6634	3.15928
268.87644	3.03489
269.08947	3.32658
269.30248	2.80236
269.51549	3.05029
269.72849	3.26736
269.94148	3.09724
270.15446	3.27568
270.36743	-0
270.58039	2.85752
270.79334	3.00201
271.00627	2.9761
271.2192	2.81578
271.43212	3.11571
271.64503	2.97019
271.85793	3.64492
272.07081	3.31018
272.28369	-0
272.49656	-0
272.70942	3.24643
272.92227	2.64247
273.1351	-0
273.34793	2.63969
273.56075	2.87942
273.77356	2.91337
273.98635	2.75824
274.19914	3.56488
274.41192	3.16058
274.62468	2.75651
274.83744	-0
275.05019	2.85737
275.26292	3.45967
275.47565	2.78698
275.68837	2.76931
275.90107	3.30654
276.11377	2.60313
276.32645	2.90985
276.53913	3.17563
276.7518	2.83298
276.96445	3.36232
277.1771	2.86544
277.38973	-0
277.60236	2.79498
277.81497	2.85116
278.02758	4.5948
278.24017	2.91103
278.45276	-0
278.66533	3.49497
278.87789	2.97503
279.09045	3.73321
279.30299	-0
279.51552	2.94366
279.72805	3.0808
279.94056	2.88594
280.15306	2.90069
280.36556	3.04023
280.57804	2.80426
280.79051	-0
281.00297	2.4244
281.21543	2.7865
281.42787	3.93493
281.6403	4.60218
281.85272	2.8518
282.06513	3.10014
282.27753	-0
282.48992	2.50614
282.70231	3.93847
282.91468	3.26239
283.12704	2.84924
283.33939	-0
283.55173	3.54317
283.76406	3.00856
283.97638	4.21032
284.18868	2.86395
284.40098	3.08447
284.61327	2.39633
284.82555	2.61863
285.03782	-0
285.25008	3.24889
285.46232	3.00669
285.67456	3.51746
285.88679	-0
286.09901	-0
286.31121	-0
286.52341	2.71274
286.7356	2.63254
286.94777	-0
287.15994	-0
287.37209	2.97453
287.58424	2.7724
287.79637	2.70138
288.0085	3.01876
288.22061	2.88705
288.43272	2.98505
288.64481	-0
288.85689	-0
289.06897	2.94318
289.28103	3.87468
289.49308	2.80762
289.70512	4.08893
289.91716	2.72139
290.12918	3.2238
290.34119	3.31233
290.55319	-0
290.76518	2.94725
290.97716	2.67037
291.18913	3.17427
291.40109	3.22598
291.61304	2.91533
291.82498	3.9055
292.03691	2.9555
292.24883	2.75717
292.46074	2.734
292.67264	-0
292.88452	3.04202
293.0964	3.34278
293.30827	3.27551
293.52013	3.9096
293.73197	3.23721
293.94381	2.88498
294.15563	2.8119
294.36745	3.69269
294.57925	2.68695
294.79105	2.7941
295.00283	-0
295.21461	3.14111
295.42637	2.86324
295.63812	3.02665
295.84987	3.43286
296.0616	3.23789
296.27332	-0
296.48503	3.29572
296.69673	-0
296.90843	3.31874
297.12011	2.78396
297.33178	4.4185
297.54344	3.04231
297.75509	2.9146
297.96672	2.75545
298.17835	-0
298.38997	3.25307
298.60158	-0
298.81318	3.39647
299.02476	2.66036
299.23634	3.42349
299.44791	3.15753
299.65946	2.82412
299.87101	2.78483
300.08254	3.00151
300.29407	3.47304
300.50558	-0
300.71709	-0
300.92858	2.98989
301.14006	3.09188
301.35154	3.71358
301.563	2.93788
301.77445	2.59218
301.98589	-0
302.19732	2.62943
302.40874	-0
302.62015	2.66429
302.83155	3.23227
303.04294	3.16933
303.25432	2.86988
303.46569	3.1699
303.67704	3.38347
303.88839	2.62266
304.09973	2.79283
304.31106	2.83083
304.52237	2.83983
304.73368	2.80969
304.94497	2.86868
305.15626	3.14724
305.36753	-0
305.57879	2.94832
305.79005	2.98563
306.00129	2.91409
306.21252	3.44583
306.42374	3.67547
306.63495	3.08742
306.84615	2.43556
307.05734	-0
307.26852	-0
307.47969	-0
307.69085	2.68451
307.902	3.09072
308.11314	2.89405
308.32426	3.83594
308.53538	2.68128
308.74649	2.9491
308.95758	-0
309.16867	-0
309.37974	3.53552
309.59081	2.74159
309.80186	2.66697
310.0129	2.44541
310.22393	2.92282
310.43496	2.92748
310.64597	2.74011
310.85697	3.39278
311.06796	2.70518
311.27894	3.35536
311.48991	4.79025
311.70086	2.89969
311.91181	2.86381
312.12275	2.81924
312.33368	2.52851
312.54459	3.05501
312.7555	2.85194
312.96639	3.33852
313.17728	3.79102
313.38815	-0
313.59902	3.0216
313.80987	3.061
314.02071	3.12571
314.23154	-0
314.44236	2.87029
314.65318	4.10606
314.86398	2.94902
315.07476	3.04184
315.28554	2.66969
315.49631	-0
315.70707	2.87859
315.91782	4.23571
316.12855	-0
316.33928	3.45374
316.54999	3.56333
316.7607	3.41116
316.97139	2.73216
317.18208	2.68737
317.39275	2.75165
317.60341	3.28899
317.81406	3.47318
318.0247	-0
318.23533	2.64799
318.44595	3.35102
318.65656	3.99749
318.86716	2.9249
319.07775	-0
319.28833	2.53728
319.49889	3.26188
319.70945	2.83932
319.91999	2.7125
320.13053	2.59056
320.34105	2.81832
320.55156	2.96453
320.76207	2.91838
320.97256	2.81002
321.18304	4.75914
321.39351	4.60235
321.60397	2.96637
321.81442	2.70279
322.02486	2.98555
322.23529	2.73767
322.4457	3.08867
322.65611	2.90711
322.86651	2.60367
323.07689	2.65724
323.28726	3.38532
323.49763	2.93989
323.70798	3.03339
323.91832	2.69062
324.12866	3.89429
324.33898	3.95151
324.54929	-0
324.75959	2.96379
324.96988	2.73581
325.18015	-0
325.39042	2.58404
325.60068	3.25694
325.81092	2.77646
326.02116	2.86823
326.23138	3.5823
326.4416	-0
326.6518	-0
326.86199	-0
327.07217	2.81046
327.28235	3.27936
327.49251	3.1628
327.70265	2.71906
327.91279	3.40429
328.12292	2.68076
328.33304	2.87732
328.54315	3.21823
328.75324	2.82787
328.96333	2.8707
329.1734	2.70094
329.38346	3.55946
329.59352	3.31079
329.80356	3.48861
330.01359	3.19814
330.22361	2.91502
330.43362	2.86631
330.64362	2.98899
330.85361	3.38597
331.06358	2.4953
331.27355	-0
331.48351	-0
331.69345	-0
331.90338	2.65017
332.11331	2.8736
332.32322	2.96134
332.53312	3.25174
332.74301	2.9843
332.95289	2.71407
333.16276	2.93987
333.37262	3.32289
333.58247	2.77277
333.79231	-0
334.00213	3.00696
334.21195	2.87221
334.42175	2.60519
334.63155	2.75266
334.84133	2.79284
335.0511	2.85081
335.26086	2.52335
335.47061	2.69345
335.68035	2.83876
335.89008	2.64431
336.0998	-0
336.3095	2.93144
336.5192	2.48181
336.72889	3.05474
336.93856	3.26934
337.14822	2.71207
337.35788	2.6687
337.56752	2.39086
337.77715	2.78929
337.98677	2.6204
338.19638	2.71073
338.40598	2.49702
338.61556	-0
338.82514	-0
339.03471	2.8988
339.24426	-0
339.45381	3.17558
339.66334	3.26238
339.87286	2.63617
340.08237	2.37533
340.29187	2.89297
340.50136	2.89363
340.71084	3.36811
340.92031	2.57215
341.12977	2.49408
341.33921	-0
341.54865	-0
341.75807	3.5229
341.96749	2.78535
342.17689	2.68287
342.38628	2.64386
342.59566	2.55684
342.80503	-0
343.01439	3.01073
343.22374	2.9084
343.43307	3.54489
343.6424	2.61882
343.85171	-0
344.06102	2.64128
344.27031	2.50972
344.47959	2.98575
344.68886	2.83613
344.89813	2.82766
345.10737	-0
345.31661	2.41022
345.52584	-0
345.73506	2.75964
345.94426	2.80417
346.15346	3.34887
346.36264	3.02006
346.57181	2.75317
346.78098	2.55865
346.99013	2.4831
347.19927	-0
347.40839	2.52052
347.61751	2.61467
347.82662	2.97268
348.03571	2.70447
348.2448	2.87304
348.45387	3.19354
348.66294	2.73173
348.87199	2.52241
349.08103	2.57462
349.29006	2.55176
349.49908	2.67815
349.70809	2.80518
349.91708	2.6443
350.12607	3.24851
350.33504	2.76049
350.54401	2.46934
350.75296	3.04916
350.9619	-0
351.17083	2.57823
351.37975	-0
351.58866	2.97709
351.79756	3.62079
352.00645	2.69907
352.21532	2.62307
352.42419	2.71881
352.63304	2.59261
352.84188	-0
353.05071	3.28784
353.25954	-0
353.46834	2.49802
353.67714	2.84734
353.88593	2.99084
354.09471	-0
354.30347	2.95136
354.51223	2.65892
354.72097	-0
354.9297	2.73333
355.13842	3.33737
355.34713	-0
355.55583	2.68219
355.76452	2.33125
355.9732	3.08973
356.18186	3.20455
356.39052	-0
356.59916	2.98765
356.80779	2.92769
357.01641	3.00169
357.22502	2.80987
357.43362	2.59613
357.64221	-0
357.85079	2.40002
358.05935	2.82093
358.26791	2.55425
358.47645	2.53421
358.68498	2.67801
358.89351	-0
359.10202	-0
359.31052	2.80452
359.519	2.9631
359.72748	2.40575
359.93595	2.71503
360.1444	2.88956
360.35284	2.86542
360.56128	2.73157
360.7697	3.03751
360.97811	-0
361.18651	2.50725
361.3949	2.45999
361.60327	2.61752
361.81164	2.77539
362.01999	3.12301
362.22834	-0
362.43667	-0
362.64499	2.55229
362.8533	2.34646
363.0616	2.72328
363.26988	2.68613
363.47816	2.77899
363.68643	2.84631
363.89468	2.6661
364.10292	2.55752
364.31115	3.2983
364.51937	3.52628
364.72758	3.35272
364.93578	2.6304
365.14397	-0
365.35214	2.70895
365.56031	2.79164
365.76846	3.41385
365.9766	2.68589
366.18474	2.58831
366.39286	3.14974
366.60096	-0
366.80906	2.66108
367.01715	2.5325
367.22522	2.87622
367.43329	2.69093
367.64134	3.63238
367.84938	2.72186
368.05741	2.64867
368.26543	2.90609
368.47344	3.02545
368.68143	-0
368.88942	2.64739
369.09739	2.63369
369.30535	-0
369.51331	3.07721
369.72125	2.6545
369.92918	2.91845
370.13709	2.79221
370.345	2.61425
370.55289	2.81907
370.76078	3.34934
370.96865	-0
371.17651	3.25088
371.38436	2.54222
371.5922	2.61265
371.80003	3.16982
372.00785	-0
372.21565	-0
372.42344	3.10376
372.63123	2.96671
372.839	2.53042
373.04676	2.81203
373.25451	2.87123
373.46224	2.36389
373.66997	2.68292
373.87769	2.71955
374.08539	2.83636
374.29308	2.81254
374.50076	-0
374.70843	2.91609
374.91609	3.62409
375.12374	4.07476
375.33137	2.58105
375.539	-0
375.74661	2.50396
375.95421	-0
376.1618	-0
376.36938	3.30874
376.57695	2.65153
376.78451	2.47644
376.99205	-0
377.19959	2.8088
377.40711	2.57273
377.61462	3.37625
377.82212	2.67569
378.02961	-0
378.23709	-0
378.44455	2.60146
378.65201	2.74027
378.85945	2.44964
379.06688	2.43024
379.2743	2.64424
379.48171	3.3761
379.68911	3.10715
379.89649	2.62235
380.10387	2.96501
380.31123	-0
380.51859	2.52569
380.72593	3.69639
380.93326	3.23183
381.14057	2.75826
381.34788	3.33801
381.55518	2.71155
381.76246	2.80832
381.96973	-0
382.17699	4.4818
382.38424	2.93177
382.59148	2.67273
382.79871	3.29883
383.00592	4.20122
383.21313	4.35974
383.42032	2.73164
383.6275	2.84286
383.83467	2.90262
384.04183	2.94946
384.24898	2.85767
384.45611	2.79013
384.66324	2.8321
384.87035	3.5206
385.07745	3.71515
385.28454	2.43045
385.49162	2.83057
385.69869	2.60719
385.90575	2.98414
386.11279	3.72701
386.31982	3.20444
386.52684	2.88609
386.73385	3.10487
386.94085	3.24573
387.14784	2.81713
387.35482	-0
387.56178	2.93654
387.76873	2.9512
387.97567	2.54462
388.1826	3.0922
388.38952	-0
388.59643	2.80347
388.80332	3.28258
389.01021	-0
389.21708	2.65421
389.42394	2.66643
389.63079	2.61578
389.83763	2.61316
390.04446	2.62418
390.25127	2.77524
390.45807	2.73077
390.66487	2.50869
390.87165	-0
391.07842	2.98016
391.28517	2.67663
391.49192	2.97183
391.69865	2.55078
391.90538	2.45793
392.11209	2.78024
392.31879	2.74694
392.52548	2.50778
392.73215	-0
392.93882	3.03626
393.14547	3.2634
393.35212	2.81826
393.55875	2.53012
393.76537	2.79686
393.97197	2.77605
394.17857	2.5277
394.38516	2.59636
394.59173	-0
394.79829	2.62826
395.00484	2.41217
395.21138	2.737
395.41791	2.44317
395.62442	-0
395.83093	2.93239
396.03742	2.88112
396.2439	3.05934
396.45037	4.04695
396.65683	2.8042
396.86327	2.55462
397.06971	-0
397.27613	2.77918
397.48254	-0
397.68894	2.53847
397.89533	2.86656
398.10171	3.27734
398.30807	3.79932
398.51442	-0
398.72077	2.54614
398.9271	3.59013
399.13342	2.53201
399.33972	2.57669
399.54602	-0
399.7523	2.74173
399.95857	2.953
400.16484	-0
400.37108	3.56349
400.57732	2.76054
400.78355	-0
400.98976	-0
401.19597	2.90063
401.40216	2.55363
401.60834	-0
401.8145	3.78335
402.02066	-0
402.2268	2.3967
402.43294	2.76912
402.63906	3.44595
402.84517	2.64638
403.05127	2.7112
403.25735	2.61653
403.46343	3.41586
403.66949	2.63016
403.87554	2.39184
404.08158	2.78156
404.28761	3.18406
404.49363	3.1254
404.69963	2.76915
404.90562	3.7039
405.1116	2.71225
405.31757	4.3326
405.52353	2.6477
405.72948	3.47012
405.93541	2.58139
406.14134	-0
406.34725	2.64679
406.55315	3.35267
406.75904	2.74695
406.96491	2.55158
407.17078	3.6364
407.37663	2.66322
407.58247	2.71181
