Data from Absorbance__5__13-39-16-971.txt Node

Date: Sat Aug 24 13:39:16 CDT 2024
User: jcb200005
Spectrometer: USB4H00496
Trigger mode: 4
Integration Time (sec): 5.700000E-2
Scans to average: 25
Electric dark correction enabled: true
Nonlinearity correction enabled: false
Boxcar width: 0
XAxis mode: Wavelengths
Number of Pixels in Spectrum: 3648
>>>>>Begin Spectral Data<<<<<
177.67838	-0.05315
177.89545	-0.05315
178.1125	-0.05315
178.32955	0.22124
178.54659	-0.20496
178.76362	-0
178.98064	0.47356
179.19766	0.53633
179.41466	-0.16192
179.63165	0.10813
179.84864	-0
180.06561	0.13877
180.28258	-0.36527
180.49954	-1.35614
180.71649	-0.29817
180.93343	-0.46852
181.15036	-0
181.36728	-0.29244
181.5842	-0
181.8011	0.37659
182.01799	-0
182.23488	0.56072
182.45176	0.42468
182.66862	0.40993
182.88548	0.67625
183.10233	1.07943
183.31917	1.52537
183.53601	0.73624
183.75283	-0
183.96964	-0
184.18645	-0
184.40324	-0
184.62003	0.83267
184.83681	-0
185.05357	-0
185.27033	0.49163
185.48708	-0
185.70382	0.66967
185.92056	-0
186.13728	1.34282
186.35399	0.7726
186.5707	0.30998
186.78739	1.00496
187.00408	0.94399
187.22076	0.38154
187.43742	-0
187.65408	-0
187.87073	0.40263
188.08737	0.98719
188.30401	1.0739
188.52063	0.42203
188.73724	0.84838
188.95385	0.63481
189.17044	0.40982
189.38703	1.06095
189.6036	-0
189.82017	-0
190.03673	0.65807
190.25328	0.7353
190.46982	0.5502
190.68635	0.57462
190.90287	1.83955
191.11939	-0
191.33589	0.66633
191.55239	1.42673
191.76887	-0
191.98535	1.6271
192.20182	0.92519
192.41827	0.98726
192.63472	0.5814
192.85116	0.9407
193.06759	0.96905
193.28401	1.31924
193.50043	1.10122
193.71683	1.02086
193.93322	1.15398
194.14961	1.00135
194.36598	1.68549
194.58235	0.92527
194.79871	1.63282
195.01506	1.6088
195.23139	1.89507
195.44772	0.78375
195.66404	1.50334
195.88036	0.86787
196.09666	1.27992
196.31295	1.91085
196.52923	-0
196.74551	0.97836
196.96177	1.29271
197.17803	1.28579
197.39428	1.06463
197.61051	1.19954
197.82674	1.41201
198.04296	0.96701
198.25917	0.92049
198.47537	0.98718
198.69156	1.35913
198.90775	-0
199.12392	1.17157
199.34008	1.19067
199.55624	1.66354
199.77238	-0
199.98852	0.97692
200.20465	1.35424
200.42076	2.24681
200.63687	1.51406
200.85297	1.40534
201.06906	1.11498
201.28514	1.0089
201.50121	-0
201.71727	1.36634
201.93333	2.73053
202.14937	2.28088
202.3654	-0
202.58143	1.02883
202.79744	-0
203.01345	1.34653
203.22945	-0
203.44544	-0
203.66141	-0
203.87738	2.21612
204.09334	1.24689
204.30929	1.62733
204.52523	1.09017
204.74117	1.55069
204.95709	1.22103
205.173	1.87588
205.38891	1.74442
205.6048	1.56116
205.82069	1.6662
206.03656	2.09454
206.25243	2.29835
206.46829	2.26879
206.68413	1.48806
206.89997	1.62258
207.1158	1.42508
207.33162	1.51567
207.54743	-0
207.76324	2.04482
207.97903	-0
208.19481	1.46985
208.41058	2.14165
208.62635	-0
208.8421	2.41392
209.05785	2.46172
209.27358	-0
209.48931	1.55334
209.70503	1.68942
209.92074	1.80884
210.13643	2.70685
210.35212	1.73907
210.5678	1.71272
210.78347	1.51586
210.99914	1.56696
211.21479	1.57408
211.43043	1.94407
211.64606	-0
211.86169	1.72753
212.0773	1.53998
212.29291	2.79679
212.5085	1.71949
212.72409	1.74004
212.93966	1.68805
213.15523	1.71718
213.37079	2.0678
213.58634	-0
213.80188	1.86938
214.01741	1.70792
214.23293	1.57964
214.44844	2.32655
214.66394	1.88572
214.87943	1.80295
215.09491	1.78417
215.31039	1.64621
215.52585	-0
215.7413	2.52453
215.95675	-0
216.17218	2.07509
216.38761	-0
216.60303	2.15797
216.81843	1.64638
217.03383	1.92054
217.24922	2.40676
217.4646	2.54872
217.67997	1.90977
217.89533	2.12748
218.11068	1.76644
218.32602	1.63399
218.54135	2.2345
218.75667	2.11764
218.97198	2.07267
219.18729	2.22508
219.40258	1.71205
219.61787	2.0757
219.83314	2.26047
220.04841	2.11678
220.26366	2.12374
220.47891	1.95549
220.69414	-0
220.90937	2.9907
221.12459	1.93285
221.3398	2.2204
221.555	2.62786
221.77019	1.89596
221.98536	-0
222.20054	-0
222.4157	-0
222.63085	2.30751
222.84599	2.11271
223.06112	3.67874
223.27624	-0
223.49136	2.08302
223.70646	2.03841
223.92155	3.70794
224.13664	-0
224.35171	2.3427
224.56678	2.09351
224.78184	2.40499
224.99688	2.81527
225.21192	2.15624
225.42695	1.98359
225.64196	2.90144
225.85697	2.28542
226.07197	2.20439
226.28696	-0
226.50194	2.12273
226.71691	2.29541
226.93187	2.53784
227.14682	2.22267
227.36176	2.73162
227.5767	-0
227.79162	2.64936
228.00653	2.81152
228.22143	2.34286
228.43633	2.19643
228.65121	2.39469
228.86609	-0
229.08095	2.45331
229.29581	2.14285
229.51065	3.21674
229.72549	2.78961
229.94031	2.26849
230.15513	2.26398
230.36994	2.45299
230.58474	3.04061
230.79952	2.94058
231.0143	2.6517
231.22907	-0
231.44383	2.66618
231.65858	2.41441
231.87332	2.60793
232.08805	2.41569
232.30277	2.26832
232.51748	2.12047
232.73218	2.35131
232.94688	3.64919
233.16156	-0
233.37623	-0
233.59089	-0
233.80555	3.08437
234.02019	2.73433
234.23483	2.56435
234.44945	2.88692
234.66406	2.54953
234.87867	2.80649
235.09327	4.67376
235.30785	-0
235.52243	2.21517
235.73699	2.33658
235.95155	2.69104
236.1661	2.70588
236.38064	2.25831
236.59516	2.24368
236.80968	2.22831
237.02419	2.39194
237.23869	2.5704
237.45318	2.88478
237.66766	2.25892
237.88213	3.31348
238.09659	2.30961
238.31104	2.62149
238.52548	2.50021
238.73991	2.92695
238.95433	2.42215
239.16874	-0
239.38314	3.69976
239.59754	-0
239.81192	-0
240.02629	2.62275
240.24066	2.74673
240.45501	2.35769
240.66935	2.63383
240.88369	2.36688
241.09801	2.50082
241.31232	-0
241.52663	2.51579
241.74092	-0
241.95521	-0
242.16949	2.40329
242.38375	-0
242.59801	2.44408
242.81225	2.64785
243.02649	-0
243.24072	3.14552
243.45493	2.31613
243.66914	2.92799
243.88334	2.91696
244.09753	3.18397
244.31171	2.6756
244.52587	3.15101
244.74003	2.91635
244.95418	2.63385
245.16832	2.52752
245.38245	2.96358
245.59657	3.20434
245.81068	-0
246.02478	2.76624
246.23887	2.65328
246.45295	-0
246.66702	2.77862
246.88108	3.33593
247.09513	2.66329
247.30917	2.62228
247.5232	2.7046
247.73722	2.69686
247.95124	3.03008
248.16524	2.61643
248.37923	2.58453
248.59321	-0
248.80719	2.5427
249.02115	2.6932
249.2351	2.76584
249.44904	3.05479
249.66298	2.56833
249.8769	2.36268
250.09081	2.99956
250.30472	2.97578
250.51861	2.67406
250.7325	-0
250.94637	2.81477
251.16024	3.34411
251.37409	2.80108
251.58793	2.90439
251.80177	4.0748
252.01559	2.74935
252.22941	2.66802
252.44322	2.91376
252.65701	-0
252.8708	-0
253.08457	3.03987
253.29834	-0
253.51209	2.72706
253.72584	2.9002
253.93958	3.12799
254.1533	3.64331
254.36702	-0
254.58073	2.80359
254.79442	3.46623
255.00811	2.92277
255.22179	2.80097
255.43545	2.98311
255.64911	2.78922
255.86276	2.51575
256.0764	2.86633
256.29002	-0
256.50364	3.30573
256.71725	2.93481
256.93085	2.55714
257.14443	3.02424
257.35801	3.42066
257.57158	2.65373
257.78514	2.56206
257.99869	2.86728
258.21223	3.48153
258.42575	3.1441
258.63927	2.63562
258.85278	2.71692
259.06628	3.07374
259.27977	-0
259.49325	2.7058
259.70672	3.00408
259.92017	2.72307
260.13362	3.25035
260.34706	2.66746
260.56049	2.72141
260.77391	2.78694
260.98732	3.73112
261.20072	2.95827
261.41411	2.60727
261.62749	3.47232
261.84086	3.63621
262.05422	2.74594
262.26757	3.07301
262.4809	2.81001
262.69423	2.73357
262.90755	3.02325
263.12086	2.52675
263.33416	3.11567
263.54745	-0
263.76073	3.58717
263.974	2.89972
264.18726	3.4725
264.40051	-0
264.61375	3.37243
264.82698	2.7813
265.0402	4.35214
265.25341	2.72368
265.46661	2.74012
265.6798	2.95489
265.89298	2.61092
266.10615	-0
266.31931	2.80006
266.53245	3.81698
266.74559	2.93226
266.95872	2.92115
267.17184	-0
267.38495	2.79753
267.59805	2.66655
267.81114	2.82509
268.02422	2.93109
268.23729	2.52874
268.45035	3.18763
268.6634	2.96416
268.87644	2.78056
269.08947	2.88313
269.30248	2.80734
269.51549	-0
269.72849	2.74046
269.94148	3.25637
270.15446	-0
270.36743	3.03252
270.58039	3.45621
270.79334	3.06303
271.00627	2.72272
271.2192	2.78945
271.43212	2.719
271.64503	2.88516
271.85793	3.36348
272.07081	-0
272.28369	-0
272.49656	3.41172
272.70942	3.94233
272.92227	2.64426
273.1351	3.23025
273.34793	3.067
273.56075	2.67852
273.77356	2.70123
273.98635	2.42399
274.19914	3.59319
274.41192	3.08483
274.62468	-0
274.83744	3.5739
275.05019	3.87635
275.26292	2.96599
275.47565	3.01589
275.68837	2.64878
275.90107	3.36549
276.11377	3.33343
276.32645	3.00642
276.53913	-0
276.7518	3.0139
276.96445	-0
277.1771	2.85382
277.38973	-0
277.60236	3.22631
277.81497	3.3525
278.02758	2.96184
278.24017	3.25122
278.45276	-0
278.66533	3.07568
278.87789	2.70887
279.09045	2.93709
279.30299	3.0148
279.51552	2.76629
279.72805	2.84042
279.94056	-0
280.15306	2.9483
280.36556	2.8058
280.57804	3.74188
280.79051	4.08156
281.00297	3.22977
281.21543	3.14973
281.42787	-0
281.6403	-0
281.85272	2.93176
282.06513	2.69517
282.27753	2.82945
282.48992	2.62845
282.70231	2.77161
282.91468	2.77519
283.12704	2.68216
283.33939	3.50763
283.55173	-0
283.76406	2.84552
283.97638	2.66699
284.18868	-0
284.40098	2.615
284.61327	2.54269
284.82555	2.61885
285.03782	3.68524
285.25008	3.21212
285.46232	2.68405
285.67456	3.3402
285.88679	-0
286.09901	4.33866
286.31121	3.07502
286.52341	2.69393
286.7356	2.4763
286.94777	2.7264
287.15994	-0
287.37209	3.4888
287.58424	3.81286
287.79637	3.85553
288.0085	3.08289
288.22061	2.86387
288.43272	3.20302
288.64481	3.11664
288.85689	3.68879
289.06897	2.92995
289.28103	-0
289.49308	3.14234
289.70512	4.05812
289.91716	2.80711
290.12918	3.85683
290.34119	3.14419
290.55319	-0
290.76518	3.35479
290.97716	2.71537
291.18913	3.6601
291.40109	3.03378
291.61304	2.58741
291.82498	3.01999
292.03691	2.81118
292.24883	2.80658
292.46074	2.64015
292.67264	-0
292.88452	2.67397
293.0964	2.86074
293.30827	-0
293.52013	-0
293.73197	2.70568
293.94381	3.46742
294.15563	3.39553
294.36745	3.03383
294.57925	2.74861
294.79105	2.85682
295.00283	3.16048
295.21461	3.56087
295.42637	-0
295.63812	3.05102
295.84987	3.53939
296.0616	2.9687
296.27332	-0
296.48503	3.60928
296.69673	3.76346
296.90843	3.01608
297.12011	3.17893
297.33178	3.37342
297.54344	3.25639
297.75509	2.94387
297.96672	2.66992
298.17835	-0
298.38997	2.8818
298.60158	-0
298.81318	-0
299.02476	2.94621
299.23634	2.98862
299.44791	3.7162
299.65946	3.7171
299.87101	2.56379
300.08254	-0
300.29407	3.47457
300.50558	-0
300.71709	3.67019
300.92858	2.61595
301.14006	3.07768
301.35154	2.76616
301.563	2.98549
301.77445	2.88018
301.98589	3.17913
302.19732	3.03051
302.40874	-0
302.62015	2.55356
302.83155	-0
303.04294	2.76364
303.25432	-0
303.46569	3.59536
303.67704	2.85106
303.88839	2.81689
304.09973	2.95694
304.31106	3.05007
304.52237	-0
304.73368	2.70814
304.94497	3.09366
305.15626	-0
305.36753	5.93688
305.57879	3.40159
305.79005	2.75297
306.00129	2.7915
306.21252	3.83058
306.42374	2.90171
306.63495	2.81975
306.84615	2.7541
307.05734	2.90608
307.26852	3.90037
307.47969	3.22468
307.69085	2.79632
307.902	3.0386
308.11314	2.98178
308.32426	3.27198
308.53538	2.76942
308.74649	2.96581
308.95758	2.77947
309.16867	-0
309.37974	3.69731
309.59081	3.28033
309.80186	2.99674
310.0129	2.75833
310.22393	4.24965
310.43496	3.23105
310.64597	3.03787
310.85697	4.15152
311.06796	2.91957
311.27894	3.0733
311.48991	4.36817
311.70086	2.8356
311.91181	2.91309
312.12275	3.02389
312.33368	2.46176
312.54459	3.51826
312.7555	2.69089
312.96639	4.19804
313.17728	3.28297
313.38815	2.84769
313.59902	4.0399
313.80987	2.97902
314.02071	2.75535
314.23154	3.77577
314.44236	2.58917
314.65318	3.31429
314.86398	-0
315.07476	2.73834
315.28554	2.86168
315.49631	2.81198
315.70707	3.07244
315.91782	-0
316.12855	3.20056
316.33928	-0
316.54999	3.32452
316.7607	3.06719
316.97139	2.88535
317.18208	2.83364
317.39275	2.56077
317.60341	2.67838
317.81406	3.42369
318.0247	2.7721
318.23533	3.65158
318.44595	2.86672
318.65656	2.85462
318.86716	2.92792
319.07775	2.97029
319.28833	2.95999
319.49889	2.97949
319.70945	4.43218
319.91999	3.1643
320.13053	2.38489
320.34105	3.19673
320.55156	3.9845
320.76207	3.56395
320.97256	3.49962
321.18304	4.62651
321.39351	3.14221
321.60397	2.76939
321.81442	2.95877
322.02486	2.7987
322.23529	2.75427
322.4457	2.63916
322.65611	3.23842
322.86651	2.64512
323.07689	3.12517
323.28726	3.01832
323.49763	2.62246
323.70798	3.92926
323.91832	2.88281
324.12866	2.89208
324.33898	-0
324.54929	-0
324.75959	3.37235
324.96988	2.87566
325.18015	-0
325.39042	2.66093
325.60068	3.1332
325.81092	2.62504
326.02116	2.83931
326.23138	2.7639
326.4416	3.12881
326.6518	3.02775
326.86199	-0
327.07217	2.60142
327.28235	2.92151
327.49251	3.42465
327.70265	2.80679
327.91279	3.47503
328.12292	2.82189
328.33304	2.46738
328.54315	3.07915
328.75324	2.87723
328.96333	3.033
329.1734	2.70771
329.38346	3.44613
329.59352	3.25323
329.80356	2.67489
330.01359	3.21561
330.22361	3.07342
330.43362	2.97903
330.64362	3.08632
330.85361	-0
331.06358	3.31552
331.27355	-0
331.48351	-0
331.69345	2.8776
331.90338	2.92106
332.11331	2.52384
332.32322	2.79673
332.53312	3.28538
332.74301	3.16068
332.95289	2.66572
333.16276	2.6521
333.37262	2.78096
333.58247	2.69049
333.79231	-0
334.00213	3.31886
334.21195	3.0055
334.42175	2.92237
334.63155	3.72292
334.84133	2.84828
335.0511	2.87528
335.26086	2.49199
335.47061	2.86523
335.68035	3.11307
335.89008	2.59345
336.0998	-0
336.3095	2.96099
336.5192	2.77735
336.72889	2.82802
336.93856	2.77394
337.14822	3.04437
337.35788	2.69917
337.56752	2.4211
337.77715	2.73779
337.98677	2.65115
338.19638	2.86663
338.40598	3.71991
338.61556	4.06615
338.82514	2.78447
339.03471	-0
339.24426	3.20299
339.45381	3.27744
339.66334	2.74979
339.87286	2.4173
340.08237	2.69363
340.29187	2.84835
340.50136	3.05262
340.71084	2.94343
340.92031	2.59983
341.12977	2.79867
341.33921	-0
341.54865	2.83072
341.75807	-0
341.96749	2.74375
342.17689	2.93566
342.38628	2.58598
342.59566	2.46409
342.80503	-0
343.01439	2.76526
343.22374	3.25134
343.43307	2.76191
343.6424	2.65918
343.85171	4.54448
344.06102	2.70597
344.27031	2.54104
344.47959	2.60528
344.68886	3.89259
344.89813	3.22283
345.10737	2.77516
345.31661	2.86221
345.52584	-0
345.73506	2.50863
345.94426	2.68846
346.15346	3.12045
346.36264	2.97793
346.57181	3.02018
346.78098	2.50022
346.99013	2.71792
347.19927	-0
347.40839	2.64689
347.61751	2.77133
347.82662	3.99787
348.03571	2.91847
348.2448	2.85902
348.45387	2.90983
348.66294	2.94458
348.87199	2.56691
349.08103	2.9465
349.29006	2.83196
349.49908	2.62337
349.70809	-0
349.91708	3.07125
350.12607	-0
350.33504	3.05008
350.54401	2.6637
350.75296	3.23938
350.9619	2.55347
351.17083	2.40502
351.37975	3.47284
351.58866	-0
351.79756	2.97851
352.00645	3.00417
352.21532	3.19147
352.42419	3.13824
352.63304	2.60759
352.84188	-0
353.05071	2.75068
353.25954	2.9527
353.46834	2.42492
353.67714	2.87194
353.88593	2.6888
354.09471	-0
354.30347	2.61737
354.51223	2.58747
354.72097	3.52566
354.9297	2.55104
355.13842	3.05705
355.34713	2.98878
355.55583	3.17118
355.76452	2.72956
355.9732	3.01936
356.18186	-0
356.39052	2.88457
356.59916	3.19123
356.80779	3.96731
357.01641	3.22942
357.22502	2.81582
357.43362	2.9245
357.64221	2.97491
357.85079	2.77786
358.05935	2.59248
358.26791	2.56677
358.47645	2.5403
358.68498	2.67834
358.89351	-0
359.10202	3.28808
359.31052	3.1137
359.519	2.71932
359.72748	2.94583
359.93595	2.77901
360.1444	2.53787
360.35284	2.46215
360.56128	2.53517
360.7697	3.00713
360.97811	3.02892
361.18651	2.58797
361.3949	2.5731
361.60327	2.60059
361.81164	2.3766
362.01999	3.92621
362.22834	-0
362.43667	4.94163
362.64499	-0
362.8533	2.55596
363.0616	3.45352
363.26988	2.75615
363.47816	-0
363.68643	3.31998
363.89468	2.6361
364.10292	2.3761
364.31115	2.74349
364.51937	3.09351
364.72758	3.26746
364.93578	2.44685
365.14397	4.29518
365.35214	2.88522
365.56031	2.90222
365.76846	3.04878
365.9766	2.61199
366.18474	-0
366.39286	3.59133
366.60096	3.04627
366.80906	2.58846
367.01715	2.54863
367.22522	2.96273
367.43329	2.81405
367.64134	3.60083
367.84938	2.93587
368.05741	2.56003
368.26543	2.44263
368.47344	3.01726
368.68143	3.24229
368.88942	2.74173
369.09739	2.98306
369.30535	3.41485
369.51331	3.86212
369.72125	2.54617
369.92918	3.01491
370.13709	2.85598
370.345	2.5706
370.55289	2.6686
370.76078	2.61556
370.96865	-0
371.17651	3.27647
371.38436	2.55656
371.5922	-0
371.80003	3.12784
372.00785	3.14672
372.21565	2.82567
372.42344	3.09371
372.63123	2.59515
372.839	2.54716
373.04676	2.60497
373.25451	2.53054
373.46224	2.74507
373.66997	3.09259
373.87769	2.86545
374.08539	3.70712
374.29308	2.94755
374.50076	3.14685
374.70843	2.97931
374.91609	2.42017
375.12374	-0
375.33137	2.43962
375.539	-0
375.74661	2.86814
375.95421	2.90828
376.1618	3.5882
376.36938	3.4993
376.57695	3.78203
376.78451	2.6606
376.99205	3.03819
377.19959	-0
377.40711	2.73295
377.61462	2.59606
377.82212	2.87095
378.02961	-0
378.23709	2.84321
378.44455	2.61569
378.65201	2.87649
378.85945	3.01868
379.06688	2.42818
379.2743	2.94343
379.48171	4.10088
379.68911	-0
379.89649	2.78144
380.10387	2.83595
380.31123	3.64148
380.51859	2.62739
380.72593	3.40073
380.93326	2.61039
381.14057	3.08465
381.34788	-0
381.55518	2.62687
381.76246	2.69304
381.96973	3.52169
382.17699	2.83687
382.38424	2.92504
382.59148	2.7766
382.79871	2.58344
383.00592	2.96476
383.21313	-0
383.42032	2.40501
383.6275	2.96915
383.83467	2.47806
384.04183	-0
384.24898	2.72237
384.45611	2.8579
384.66324	2.3282
384.87035	2.84443
385.07745	-0
385.28454	3.09488
385.49162	-0
385.69869	2.92531
385.90575	2.90069
386.11279	2.84052
386.31982	2.70319
386.52684	3.00679
386.73385	3.32326
386.94085	-0
387.14784	2.73999
387.35482	2.61717
387.56178	2.92957
387.76873	3.24429
387.97567	2.43459
388.1826	3.01776
388.38952	-0
388.59643	2.91691
388.80332	2.86332
389.01021	-0
389.21708	2.50966
389.42394	3.22941
389.63079	2.68012
389.83763	2.91981
390.04446	2.76511
390.25127	3.75788
390.45807	-0
390.66487	2.48594
390.87165	-0
391.07842	2.9854
391.28517	2.82559
391.49192	2.93123
391.69865	2.45647
391.90538	3.00492
392.11209	2.78068
392.31879	2.43324
392.52548	3.3075
392.73215	2.57348
392.93882	-0
393.14547	3.15583
393.35212	2.96136
393.55875	2.72549
393.76537	2.54318
393.97197	-0
394.17857	4.11538
394.38516	2.48839
394.59173	-0
394.79829	2.44034
395.00484	2.41725
395.21138	2.75834
395.41791	2.95412
395.62442	2.59238
395.83093	2.98464
396.03742	2.79602
396.2439	3.64865
396.45037	3.12787
396.65683	2.58004
396.86327	2.46674
397.06971	2.98664
397.27613	3.22597
397.48254	2.97884
397.68894	2.81848
397.89533	3.03318
398.10171	3.65864
398.30807	-0
398.51442	3.6973
398.72077	2.99131
398.9271	2.87932
399.13342	3.00737
399.33972	2.81644
399.54602	-0
399.7523	4.1278
399.95857	3.02462
400.16484	-0
400.37108	2.72373
400.57732	2.81971
400.78355	-0
400.98976	-0
401.19597	-0
401.40216	2.41918
401.60834	-0
401.8145	4.60391
402.02066	2.5342
402.2268	2.61987
402.43294	2.64406
402.63906	3.12132
402.84517	-0
403.05127	2.60786
403.25735	2.66371
403.46343	-0
403.66949	2.92268
403.87554	2.57406
404.08158	2.8902
404.28761	2.99493
404.49363	3.1075
404.69963	2.47454
404.90562	3.29351
405.1116	3.57229
405.31757	-0
405.52353	3.43286
405.72948	2.64205
405.93541	2.58725
406.14134	3.21413
406.34725	2.9017
406.55315	2.65254
406.75904	2.29875
406.96491	2.65422
